	time (ns)	angle (degree)	average angle	angle standard deviation
0	500.000	9.982		
1	501.000	13.240		
2	502.000	8.711		
3	503.000	10.070		
4	504.000	8.577		
5	505.000	11.051		
6	506.000	10.566		
7	507.000	12.625		
8	508.000	11.756		
9	509.000	13.351		
10	510.000	8.693		
11	511.000	13.592		
12	512.000	12.004	10.004	2.184
13	513.000	10.581	10.059	2.201
14	514.000	6.933	9.924	2.099
15	515.000	8.790	9.827	2.211
16	516.000	7.877	9.740	2.243
17	517.000	7.471	9.647	2.340
18	518.000	5.889	9.395	2.515
19	519.000	9.122	9.235	2.564
20	520.000	9.490	8.987	2.522
21	521.000	6.968	8.663	2.668
22	522.000	8.849	8.313	2.601
23	523.000	11.306	8.072	2.833
24	524.000	12.607	7.764	2.619
25	525.000	11.361	7.405	2.627
26	526.000	9.853	7.240	2.548
27	527.000	6.283	7.128	2.622
28	528.000	7.916	6.949	2.657
29	529.000	6.240	6.724	2.809
30	530.000	4.744	6.485	2.991
31	531.000	6.568	6.353	3.089
32	532.000	6.442	6.157	3.061
33	533.000	3.650	5.864	3.080
34	534.000	4.594	5.712	3.116
35	535.000	2.661	5.503	3.072
36	536.000	5.890	5.153	2.876
37	537.000	3.048	4.830	2.421
38	538.000	6.446	4.579	2.005
39	539.000	4.127	4.405	1.693
40	540.000	4.320	4.408	1.697
41	541.000	2.248	4.389	1.658
42	542.000	1.501	4.351	1.624
43	543.000	2.597	4.399	1.654
44	544.000	4.219	4.398	1.653
45	545.000	2.160	4.380	1.632
46	546.000	3.173	4.441	1.632
47	547.000	3.631	4.608	1.849
48	548.000	2.546	4.694	1.804
49	549.000	4.522	4.683	1.797
50	550.000	5.091	4.736	1.766
51	551.000	5.508	4.614	1.749
52	552.000	6.363	4.562	1.783
53	553.000	7.438	4.556	1.784
54	554.000	5.286	4.684	1.725
55	555.000	5.950	4.870	1.615
56	556.000	6.549	4.969	1.544
57	557.000	5.976	5.021	1.539
58	558.000	5.174	5.039	1.505
59	559.000	8.781	5.012	1.547
60	560.000	4.800	4.922	1.689
61	561.000	5.629	4.846	1.837
62	562.000	4.368	4.694	2.013
63	563.000	3.388	4.562	2.092
64	564.000	2.823	4.444	2.120
65	565.000	4.178	4.321	2.093
66	566.000	5.452	4.183	1.990
67	567.000	6.137	4.062	2.012
68	568.000	5.085	3.947	1.982
69	569.000	5.507	3.776	1.931
70	570.000	2.632	3.622	1.902
71	571.000	2.482	3.466	1.929
72	572.000	1.386	3.313	1.616
73	573.000	0.637	3.289	1.597
74	574.000	0.738	3.204	1.522
75	575.000	1.787	3.164	1.503
76	576.000	2.545	3.251	1.578
77	577.000	3.297	3.315	1.592
78	578.000	3.988	3.329	1.602
79	579.000	2.272	3.333	1.608
80	580.000	3.071	3.222	1.499
81	581.000	2.279	3.331	1.721
82	582.000	2.111	3.384	1.809
83	583.000	1.286	3.572	1.965
84	584.000	4.946	3.792	2.139
85	585.000	4.205	3.998	2.145
86	586.000	3.495	4.282	2.152
87	587.000	3.364	4.698	2.427
88	588.000	5.563	4.958	2.451
89	589.000	4.427	5.093	2.404
90	590.000	4.539	5.187	2.377
91	591.000	5.560	5.321	2.401
92	592.000	3.354	5.458	2.316
93	593.000	7.796	5.541	2.263
94	594.000	6.838	5.729	2.174
95	595.000	7.327	5.874	2.039
96	596.000	7.994	5.938	1.910
97	597.000	6.523	5.798	2.106
98	598.000	7.738	5.763	2.140
99	599.000	11.150	5.860	2.087
100	600.000	8.291	6.095	2.123
101	601.000	5.909	6.086	2.126
102	602.000	5.655	5.948	2.339
103	603.000	7.328	5.991	2.322
104	604.000	5.699	5.955	2.336
105	605.000	5.157	5.994	2.299
106	606.000	6.976	5.856	2.290
107	607.000	5.733	5.763	2.295
108	608.000	2.887	5.710	2.272
109	609.000	1.432	5.631	2.223
110	610.000	3.344	5.658	2.239
111	611.000	5.920	5.630	2.216
112	612.000	9.222	5.389	1.895
113	613.000	5.344	5.370	1.867
114	614.000	0.980	5.399	1.882
115	615.000	5.616	5.469	1.924
116	616.000	4.661	5.514	1.981
117	617.000	4.317	5.519	1.982
118	618.000	4.346	5.573	1.990
119	619.000	4.532	5.581	1.996
120	620.000	5.984	5.612	2.005
121	621.000	6.022	5.908	2.129
122	622.000	7.194	6.287	2.142
123	623.000	7.049	6.569	2.201
124	624.000	5.113	6.753	2.333
125	625.000	7.816	6.929	2.669
126	626.000	6.658	7.286	3.021
127	627.000	7.405	7.849	3.107
128	628.000	8.449	8.112	3.187
129	629.000	5.807	8.423	3.217
130	630.000	6.517	8.800	3.266
131	631.000	7.176	9.110	3.193
132	632.000	6.514	9.407	3.093
133	633.000	10.289	9.672	3.071
134	634.000	10.907	9.971	3.065
135	635.000	10.389	10.133	3.019
136	636.000	10.527	10.255	2.950
137	637.000	13.619	10.499	2.752
138	638.000	14.260	10.674	2.713
139	639.000	15.056	10.808	2.586
140	640.000	12.185	10.918	2.493
141	641.000	12.457	10.978	2.448
142	642.000	13.728	11.143	2.213
143	643.000	12.110	11.350	1.993
144	644.000	11.940	11.539	1.795
145	645.000	12.604	11.796	1.477
146	646.000	13.500	11.927	1.484
147	647.000	11.242	12.018	1.488
148	648.000	10.113	12.003	1.507
149	649.000	11.213	12.087	1.480
150	650.000	12.184	11.943	1.501
151	651.000	10.012	11.872	1.427
152	652.000	10.145	11.760	1.267
153	653.000	9.957	11.662	1.325
154	654.000	9.928	11.579	1.339
155	655.000	11.709	11.371	1.392
156	656.000	11.899	11.283	1.414
157	657.000	12.924	11.202	1.432
158	658.000	13.576	11.087	1.430
159	659.000	13.184	10.970	1.342
160	660.000	10.015	11.065	1.443
161	661.000	12.628	11.108	1.429
162	662.000	10.002	11.179	1.477
163	663.000	12.498	11.054	1.520
164	664.000	12.241	10.950	1.676
165	665.000	9.752	10.853	1.789
166	666.000	10.361	10.762	1.892
167	667.000	8.550	10.657	2.010
168	668.000	9.887	10.614	1.998
169	669.000	9.929	10.644	2.023
170	670.000	9.726	10.574	1.971
171	671.000	10.573	10.479	1.875
172	672.000	13.625	10.483	1.881
173	673.000	11.182	10.754	2.261
174	674.000	12.980	10.829	2.355
175	675.000	9.057	11.005	2.453
176	676.000	7.411	10.912	2.438
177	677.000	7.743	10.800	2.439
178	678.000	7.665	10.755	2.469
179	679.000	7.302	10.920	2.576
180	680.000	10.643	11.148	2.610
181	681.000	12.641	11.364	2.722
182	682.000	11.177	11.549	2.777
183	683.000	11.195	11.802	2.890
184	684.000	13.291	12.084	3.101
185	685.000	16.790	12.143	3.146
186	686.000	14.511	12.371	3.277
187	687.000	14.401	12.487	3.349
188	688.000	10.179	12.740	3.318
189	689.000	9.432	13.095	3.197
190	690.000	8.635	13.563	3.237
191	691.000	14.462	13.950	3.077
192	692.000	14.261	14.317	2.784
193	693.000	15.278	14.576	2.729
194	694.000	14.560	14.786	2.776
195	695.000	16.048	15.168	2.911
196	696.000	17.622	15.562	3.016
197	697.000	15.117	15.808	3.073
198	698.000	16.884	16.000	3.280
199	699.000	15.862	16.207	3.345
200	700.000	15.386	16.368	3.352
201	701.000	16.287	16.763	3.169
202	702.000	19.445	17.145	2.803
203	703.000	17.336	17.586	2.213
204	704.000	16.482	17.821	2.179
205	705.000	17.108	17.828	2.167
206	706.000	17.911	17.813	2.187
207	707.000	20.704	17.764	2.274
208	708.000	21.061	17.762	2.276
209	709.000	19.424	17.584	2.454
210	710.000	21.599	17.648	2.407
211	711.000	19.691	17.538	2.505
212	712.000	18.431	17.462	2.585
213	713.000	20.057	17.297	2.841
214	714.000	18.961	17.017	3.261
215	715.000	19.663	16.677	3.435
216	716.000	20.335	16.453	3.570
217	717.000	14.443	16.331	3.621
218	718.000	14.901	16.220	3.639
219	719.000	13.351	16.122	3.624
220	720.000	15.978	15.790	3.567
221	721.000	13.175	15.501	3.411
222	722.000	16.725	15.361	3.314
223	723.000	14.124	15.041	3.063
224	724.000	13.973	14.774	2.929
225	725.000	11.268	14.410	3.020
226	726.000	9.267	13.991	2.929
227	727.000	10.953	13.699	2.772
228	728.000	11.742	13.472	2.480
229	729.000	13.436	13.096	2.077
230	730.000	14.321	12.966	2.090
231	731.000	15.458	12.794	2.102
232	732.000	12.401	12.716	2.116
233	733.000	13.840	12.630	2.020
234	734.000	15.942	12.797	2.228
235	735.000	13.594	12.762	2.170
236	736.000	13.011	12.807	2.211
237	737.000	9.324	12.806	2.210
238	738.000	9.592	12.884	2.188
239	739.000	11.668	13.063	2.059
240	740.000	13.985	13.186	2.019
241	741.000	10.929	13.293	2.010
242	742.000	11.201	13.204	2.052
243	743.000	10.589	13.183	2.043
244	744.000	11.407	13.119	1.993
245	745.000	13.835	13.232	2.030
246	746.000	17.344	13.325	2.110
247	747.000	15.856	13.172	2.050
248	748.000	15.245	13.146	2.049
249	749.000	13.944	13.162	2.049
250	750.000	13.220	13.342	1.889
251	751.000	13.734	13.508	1.721
252	752.000	14.035	13.653	1.712
253	753.000	14.420	13.628	1.712
254	754.000	11.213	13.723	1.619
255	755.000	13.787	13.751	1.579
256	756.000	13.862	13.713	1.667
257	757.000	15.226	13.665	1.752
258	758.000	16.151	13.516	1.890
259	759.000	12.139	13.176	1.937
260	760.000	12.922	12.904	2.019
261	761.000	13.431	12.685	2.052
262	762.000	13.807	12.459	2.213
263	763.000	13.744	12.289	2.313
264	764.000	15.298	12.056	2.450
265	765.000	13.363	11.911	2.435
266	766.000	13.301	11.708	2.429
267	767.000	11.900	11.808	2.459
268	768.000	9.645	11.781	2.440
269	769.000	10.201	11.688	2.401
270	770.000	10.109	11.472	2.311
271	771.000	8.836	11.316	2.104
272	772.000	9.078	11.315	2.104
273	773.000	9.755	11.219	2.082
274	774.000	8.289	11.065	2.054
275	775.000	8.971	10.885	2.000
276	776.000	7.922	10.837	1.942
277	777.000	10.394	10.726	1.746
278	778.000	9.356	10.671	1.680
279	779.000	13.721	10.673	1.682
280	780.000	13.100	10.781	1.844
281	781.000	11.535	11.032	2.091
282	782.000	9.824	11.223	2.227
283	783.000	12.258	11.513	2.527
284	784.000	12.112	11.805	2.626
285	785.000	10.530	12.092	2.706
286	786.000	9.577	12.415	2.890
287	787.000	9.312	12.714	2.832
288	788.000	12.547	13.080	2.918
289	789.000	12.529	13.535	2.966
290	790.000	11.983	13.885	3.094
291	791.000	13.338	14.281	3.124
292	792.000	14.617	14.565	3.383
293	793.000	15.896	14.720	3.401
294	794.000	14.987	14.894	3.342
295	795.000	17.360	15.242	3.244
296	796.000	16.143	15.432	3.201
297	797.000	16.255	15.722	3.216
298	798.000	17.812	15.985	3.037
299	799.000	15.774	16.361	2.783
300	800.000	18.132	16.723	2.388
301	801.000	19.281	16.918	2.226
302	802.000	19.159	17.028	2.062
303	803.000	19.256	17.052	2.004
304	804.000	20.820	17.006	2.103
305	805.000	16.957	16.832	2.458
306	806.000	15.889	16.570	2.876
307	807.000	18.541	16.333	3.234
308	808.000	16.992	16.007	3.524
309	809.000	19.358	15.823	3.635
310	810.000	17.114	15.627	3.741
311	811.000	18.988	15.414	3.763
312	812.000	18.351	15.238	3.848
313	813.000	17.422	14.982	3.860
314	814.000	15.276	14.690	3.797
315	815.000	12.577	14.425	3.702
316	816.000	12.194	14.051	3.665
317	817.000	10.269	13.639	3.445
318	818.000	9.341	13.449	3.385
319	819.000	9.062	13.311	3.351
320	820.000	9.207	13.163	3.189
321	821.000	11.541	13.066	3.103
322	822.000	11.372	12.874	2.835
323	823.000	12.484	12.783	2.727
324	824.000	11.363	12.571	2.412
325	825.000	11.746	12.427	2.146
326	826.000	11.968	12.374	2.030
327	827.000	12.531	12.277	1.941
328	828.000	9.913	12.335	1.973
329	829.000	10.526	12.338	1.972
330	830.000	12.198	12.382	1.936
331	831.000	12.433	12.428	1.873
332	832.000	14.846	12.469	1.807
333	833.000	14.558	12.650	1.689
334	834.000	14.575	12.594	1.749
335	835.000	14.835	12.738	1.792
336	836.000	13.678	12.795	1.806
337	837.000	14.767	12.816	1.792
338	838.000	16.079	12.804	1.799
339	839.000	12.858	12.840	1.791
340	840.000	14.039	12.794	1.814
341	841.000	12.263	12.876	1.722
342	842.000	11.361	12.832	1.798
343	843.000	10.507	12.668	2.030
344	844.000	10.085	12.587	2.079
345	845.000	13.732	12.377	2.106
346	846.000	10.144	12.227	2.078
347	847.000	14.966	12.087	2.030
348	848.000	13.906	11.814	2.103
349	849.000	11.877	11.571	2.227
350	850.000	11.468	11.264	2.296
351	851.000	12.851	10.959	2.129
352	852.000	11.379	10.876	2.092
353	853.000	11.965	10.774	1.991
354	854.000	9.420	10.816	2.035
355	855.000	8.097	10.775	2.033
356	856.000	10.423	10.781	2.033
357	857.000	9.595	10.733	2.064
358	858.000	10.802	10.553	1.986
359	859.000	11.082	10.392	2.175
360	860.000	8.011	10.042	2.113
361	861.000	7.592	9.681	2.194
362	862.000	7.090	9.459	2.243
363	863.000	8.471	9.199	2.372
364	864.000	10.770	8.952	2.297
365	865.000	11.489	8.823	2.245
366	866.000	13.312	8.671	2.150
367	867.000	10.350	8.510	2.241
368	868.000	10.646	8.396	2.333
369	869.000	8.879	8.134	2.460
370	870.000	9.250	7.962	2.504
371	871.000	6.113	7.910	2.456
372	872.000	6.201	7.888	2.429
373	873.000	4.883	7.900	2.430
374	874.000	6.325	7.905	2.430
375	875.000	4.987	8.037	2.473
376	876.000	6.656	8.127	2.530
377	877.000	8.156	8.114	2.516
378	878.000	8.176	8.044	2.442
379	879.000	5.385	7.767	2.201
380	880.000	5.259	7.733	2.166
381	881.000	3.866	7.660	2.093
382	882.000	5.289	7.671	2.100
383	883.000	9.506	7.692	2.119
384	884.000	10.541	7.928	2.261
385	885.000	8.316	8.269	2.605
386	886.000	7.707	8.615	2.708
387	887.000	10.393	8.983	2.994
388	888.000	10.724	9.421	3.180
389	889.000	10.429	9.803	3.401
390	890.000	9.759	10.055	3.506
391	891.000	6.372	10.303	3.586
392	892.000	9.502	10.723	3.601
393	893.000	8.826	11.051	3.453
394	894.000	9.144	11.394	3.119
395	895.000	9.785	11.634	2.849
396	896.000	12.021	11.798	2.839
397	897.000	14.715	11.975	2.896
398	898.000	13.527	12.333	2.976
399	899.000	15.528	12.656	2.890
400	900.000	15.933	12.876	2.920
401	901.000	16.220	12.912	2.898
402	902.000	14.458	13.034	2.853
403	903.000	14.372	13.092	2.798
404	904.000	15.894	13.370	2.422
405	905.000	13.437	13.532	2.284
406	906.000	12.449	13.609	2.147
407	907.000	11.283	13.651	2.066
408	908.000	13.603	13.671	2.028
409	909.000	14.979	13.416	2.570
410	910.000	17.257	12.987	3.172
411	911.000	15.793	12.607	3.638
412	912.000	15.887	12.204	3.854
413	913.000	11.618	11.765	4.031
414	914.000	13.488	11.388	4.038
415	915.000	11.214	11.070	4.098
416	916.000	13.314	10.726	4.171
417	917.000	13.555	10.415	4.058
418	918.000	10.747	10.128	4.089
419	919.000	10.185	10.081	4.068
420	920.000	10.294	10.119	4.084
421	921.000	5.659	9.958	4.020
422	922.000	3.973	9.685	3.894
423	923.000	4.036	9.368	3.561
424	924.000	5.442	9.048	3.310
425	925.000	4.967	8.824	3.003
426	926.000	6.800	8.743	2.951
427	927.000	6.514	8.546	2.781
428	928.000	5.752	8.479	2.733
429	929.000	8.123	8.282	2.541
430	930.000	6.258	8.026	2.298
431	931.000	11.293	7.951	2.235
432	932.000	12.223	7.885	2.191
433	933.000	9.583	7.722	2.156
434	934.000	8.153	7.636	2.280
435	935.000	9.329	7.662	2.240
436	936.000	7.796	7.686	2.202
437	937.000	10.277	7.634	2.271
438	938.000	9.612	7.590	2.336
439	939.000	8.553	7.441	2.500
440	940.000	9.534	7.282	2.682
441	941.000	8.387	7.107	2.919
442	942.000	7.165	6.834	3.132
443	943.000	8.859	6.617	3.353
444	944.000	8.552	6.242	3.332
445	945.000	6.200	5.983	3.091
446	946.000	3.519	5.834	2.998
447	947.000	4.623	5.738	2.959
448	948.000	4.644	5.551	2.869
449	949.000	4.140	5.392	2.849
450	950.000	3.858	5.213	2.664
451	951.000	3.091	5.086	2.518
452	952.000	2.533	4.948	2.412
453	953.000	1.368	4.773	2.216
454	954.000	1.289	4.647	2.088
455	955.000	0.835	4.593	2.037
456	956.000	1.934	4.406	1.834
457	957.000	5.737	4.195	1.629
458	958.000	5.861	4.038	1.617
459	959.000	5.752	4.035	1.618
460	960.000	4.648	3.972	1.625
461	961.000	3.820	3.989	1.635
462	962.000	5.806	3.964	1.638
463	963.000	6.440	3.952	1.640
464	964.000	5.115	4.039	1.650
465	965.000	5.150	4.168	1.653
466	966.000	5.247	4.350	1.581
467	967.000	5.814	4.462	1.449
468	968.000	4.176	4.513	1.333
469	969.000	3.278	4.655	1.232
470	970.000	2.258	4.645	1.224
471	971.000	3.456	4.496	1.295
472	972.000	3.039	4.431	1.270
473	973.000	5.090	4.388	1.281
474	974.000	3.496	4.324	1.347
475	975.000	3.571	4.242	1.316
476	976.000	5.258	4.114	1.247
477	977.000	5.748	4.052	1.233
478	978.000	5.925	3.924	1.280
479	979.000	4.096	3.733	1.422
480	980.000	2.115	3.581	1.394
481	981.000	5.488	3.467	1.458
482	982.000	5.487	3.466	1.458
483	983.000	2.129	3.380	1.591
484	984.000	4.123	3.340	1.602
485	985.000	3.563	3.276	1.646
486	986.000	2.240	3.094	1.687
487	987.000	3.743	3.057	1.688
488	988.000	3.246	3.011	1.689
489	989.000	3.574	2.882	1.633
490	990.000	1.945	2.818	1.545
491	991.000	0.476	2.734	1.421
492	992.000	1.999	2.687	1.394
493	993.000	1.328	2.722	1.390
494	994.000	3.259	2.571	1.277
495	995.000	0.095	2.467	1.127
496	996.000	2.461	2.523	1.145
497	997.000	1.434	2.486	1.105
498	998.000	0.553	2.427	1.084
499	999.000	2.559	2.456	1.088
500	1000.000	2.439	2.376	1.062
501	1001.000	2.012	2.326	1.049
502	1002.000	4.152	2.287	1.018
503	1003.000	3.837	2.276	1.024
504	1004.000	2.918	2.320	0.965
505	1005.000	3.001	2.373	0.982
506	1006.000	1.705	2.451	0.974
507	1007.000	2.884	2.363	0.997
508	1008.000	3.540	2.385	0.949
509	1009.000	3.188	2.368	0.952
510	1010.000	2.092	2.432	0.941
511	1011.000	2.949	2.517	0.856
512	1012.000	1.754	2.677	1.178
513	1013.000	2.002	2.817	1.345
514	1014.000	2.600	2.929	1.391
515	1015.000	1.669	2.893	1.369
516	1016.000	1.574	2.916	1.391
517	1017.000	3.311	2.962	1.410
518	1018.000	3.290	3.016	1.437
519	1019.000	1.061	3.109	1.424
520	1020.000	0.652	3.144	1.429
521	1021.000	2.015	3.206	1.480
522	1022.000	3.048	3.262	1.505
523	1023.000	2.669	3.276	1.496
524	1024.000	6.564	3.346	1.520
525	1025.000	5.940	3.523	1.584
526	1026.000	4.811	3.592	1.553
527	1027.000	3.243	3.589	1.555
528	1028.000	4.433	3.714	1.519
529	1029.000	4.061	3.913	1.553
530	1030.000	4.340	3.956	1.551
531	1031.000	4.042	4.041	1.571
532	1032.000	3.744	4.220	1.468
533	1033.000	5.106	4.407	1.281
534	1034.000	4.578	4.679	1.461
535	1035.000	2.442	4.768	1.425
536	1036.000	4.692	4.983	1.497
537	1037.000	6.193	5.069	1.646
538	1038.000	3.726	5.167	1.768
539	1039.000	2.519	5.223	1.779
540	1040.000	4.784	5.413	1.812
541	1041.000	6.556	5.573	1.897
542	1042.000	4.398	5.746	1.950
543	1043.000	5.409	5.930	2.027
544	1044.000	5.522	6.147	2.104
545	1045.000	5.341	6.369	2.133
546	1046.000	8.814	6.533	2.189
547	1047.000	5.280	6.651	2.159
548	1048.000	8.023	6.821	1.973
549	1049.000	8.718	6.852	1.944
550	1050.000	8.389	6.840	1.949
551	1051.000	6.222	7.029	1.862
552	1052.000	7.985	7.241	1.612
553	1053.000	8.449	7.318	1.534
554	1054.000	8.380	7.425	1.571
555	1055.000	8.938	7.519	1.448
556	1056.000	9.457	7.699	1.454
557	1057.000	9.297	7.885	1.461
558	1058.000	9.211	7.910	1.420
559	1059.000	7.518	7.964	1.480
560	1060.000	6.706	8.057	1.373
561	1061.000	5.462	8.072	1.375
562	1062.000	5.892	8.010	1.379
563	1063.000	8.462	7.970	1.382
564	1064.000	7.807	8.075	1.342
565	1065.000	6.706	8.100	1.347
566	1066.000	9.236	8.112	1.351
567	1067.000	6.756	8.273	1.599
568	1068.000	9.897	8.337	1.658
569	1069.000	10.166	8.435	1.794
570	1070.000	5.974	8.517	1.880
571	1071.000	10.161	8.554	1.903
572	1072.000	7.600	8.646	1.907
573	1073.000	8.401	8.844	1.954
574	1074.000	7.188	9.154	2.007
575	1075.000	7.390	9.297	1.889
576	1076.000	8.824	9.244	1.932
577	1077.000	8.618	9.204	1.973
578	1078.000	8.764	9.237	1.935
579	1079.000	12.385	9.023	2.214
580	1080.000	10.550	8.921	2.373
581	1081.000	11.902	8.781	2.416
582	1082.000	11.357	8.618	2.457
583	1083.000	10.128	8.615	2.460
584	1084.000	9.817	8.425	2.518
585	1085.000	11.663	8.412	2.523
586	1086.000	13.193	8.223	2.696
587	1087.000	9.478	8.022	2.951
588	1088.000	7.130	7.813	3.174
589	1089.000	6.808	7.593	3.289
590	1090.000	7.549	7.441	3.328
591	1091.000	3.864	7.351	3.321
592	1092.000	4.227	7.049	3.185
593	1093.000	6.394	6.875	3.104
594	1094.000	6.076	6.563	2.966
595	1095.000	5.904	6.338	2.795
596	1096.000	5.419	6.229	2.693
597	1097.000	7.272	6.165	2.622
598	1098.000	3.669	6.085	2.474
599	1099.000	2.169	5.832	1.993
600	1100.000	2.168	5.760	1.886
601	1101.000	3.332	5.763	1.889
602	1102.000	4.798	5.674	1.890
603	1103.000	6.528	5.648	1.867
604	1104.000	4.817	5.743	1.833
605	1105.000	6.204	5.933	1.914
606	1106.000	4.115	5.917	1.912
607	1107.000	5.725	6.040	2.018
608	1108.000	7.403	6.175	2.119
609	1109.000	8.215	6.317	2.183
610	1110.000	9.671	6.439	2.320
611	1111.000	6.858	6.573	2.249
612	1112.000	7.688	6.849	2.105
613	1113.000	7.214	7.127	1.910
614	1114.000	4.579	7.382	1.806
615	1115.000	6.888	7.492	1.723
616	1116.000	6.239	7.553	1.715
617	1117.000	8.989	7.668	1.617
618	1118.000	5.999	7.669	1.616
619	1119.000	9.150	7.743	1.484
620	1120.000	9.275	7.790	1.435
621	1121.000	8.954	7.860	1.458
622	1122.000	10.319	7.920	1.503
623	1123.000	7.033	7.976	1.595
624	1124.000	9.069	8.134	1.673
625	1125.000	9.103	8.242	1.729
626	1126.000	9.721	8.330	1.731
627	1127.000	7.549	8.492	1.544
628	1128.000	8.057	8.609	1.528
629	1129.000	7.684	8.781	1.493
630	1130.000	6.235	8.769	1.492
631	1131.000	5.950	8.882	1.376
632	1132.000	6.911	8.832	1.389
633	1133.000	9.159	8.812	1.386
634	1134.000	9.705	8.823	1.388
635	1135.000	11.080	8.762	1.353
636	1136.000	10.809	8.795	1.319
637	1137.000	10.377	8.723	1.351
638	1138.000	9.415	8.713	1.349
639	1139.000	8.639	8.626	1.352
640	1140.000	9.796	8.602	1.376
641	1141.000	10.556	8.584	1.387
642	1142.000	8.689	8.467	1.577
643	1143.000	8.824	8.512	1.526
644	1144.000	7.882	8.521	1.510
645	1145.000	8.785	8.441	1.647
646	1146.000	9.230	8.280	1.766
647	1147.000	8.792	8.165	1.763
648	1148.000	7.847	7.981	1.684
